»»»»»»»»»»»»»»»»»»»»»»»»»»»»»»»»»»»» Hysteresis ««««««««««««««««««««««««««««««««««««
»»»  Executed Version:	5.15.2
»»»  Vision Version:	5.15.9 (R)
»»»  Vision Compiled:	11/30/17
»»»  Driver Version:	5.15.8
»»»  Windows Version:	Windows 7
»»»  Processor Information:	x86 (AMD or Intel) - 4 Processors
»»»  Tester Name:	
»»»  Tester S/N:	PMF21217-360
»»»  Internal Amp Type:	200V RevH 100K 
»»»  Internal Amp S/N:	iAB2-391/H     
»»»  Execution Count:	1
»»»»»»»»»»»»»»»»»»»»»»»»»»»»»»»»»»»»»»»»»»««««««««««««««««««««««««««««««««««««««««««

Stored:	4/22/2022 - 16:58:14
Configured:	04/22/22 02:27:44 PM
Executed:	04/22/22 04:58:00 PM

»»»»»»»»»»»»»»»»»»»»»»»»»»»»»»»»»»» Sample Info ««««««««««««««««««««««««««««««««««««
Sample Name:	
Lot Name:	
Wafer Name:	
Die Row/Column:	0/0
Capacitor Number:	0
Sample Area (cm2):	2.80e-004
Sample Thickness (µm):	2.60e-001

Mux Loop Adjustment:	Disabled

Amplifier:	Internal

»»»»»»»»»»»»»»»»»»»»»»»»»»»»»»»»»»» Tester Info «««««««««««««««««««««««««««««««««««
Tester Name:	
Tester Serial Number:	PMF21217-360
Return Signal Amp. Level:	0.2 [Index: 1]

»»»»»»»»»»»»»»»»»»»»»»»»»»»»»»»» Hysteresis Info ««««««««««««««««««««««««««««««««««
Task Name:	Hyst-1
Volts:	30.00
Field:	1153.85 (kV/cm)
Hysteresis Period (ms):	1.00e-001
Preset:	Enabled
Preset Delay (ms):	1.00e+003
Profile:	Double Bipolar

»»»»»»»»»»»»»»»»»»»»»»»»»»»»»»»»»»»»»» Data «««««««««««««««««««««««««««««««««««««««
Points:	201

Valid Data

Point	Time (ms)	Drive Voltage	Measured Polarization
   1	5.0000e-004	-0.2019	-0.569876
   2	1.0000e-003	0.6313	0.254352
   3	1.5000e-003	1.8281	1.086307
   4	2.0000e-003	2.9897	1.920838
   5	2.5000e-003	4.2361	2.884154
   6	3.0000e-003	5.4666	3.882243
   7	3.5000e-003	6.6538	4.835256
   8	4.0000e-003	7.8859	5.770240
   9	4.5000e-003	9.0443	6.702648
  10	5.0000e-003	10.2459	7.627329
  11	5.5000e-003	11.3754	8.582918
  12	6.0000e-003	12.5018	9.458660
  13	6.5000e-003	13.7338	10.508263
  14	7.0000e-003	14.8986	11.469004
  15	7.5000e-003	16.0378	12.463229
  16	8.0000e-003	17.2298	13.458742
  17	8.5000e-003	18.4298	14.503193
  18	9.0000e-003	19.5721	15.487115
  19	9.5000e-003	20.7722	16.489067
  20	1.0000e-002	21.9257	17.590184
  21	1.0500e-002	23.1338	18.675847
  22	1.1000e-002	24.2970	19.720299
  23	1.1500e-002	25.4729	20.812401
  24	1.2000e-002	26.6233	21.822080
  25	1.2500e-002	27.8634	22.968272
  26	1.3000e-002	29.0586	24.422262
  27	1.3500e-002	28.7654	24.144085
  28	1.4000e-002	27.7977	23.748713
  29	1.4500e-002	26.7066	23.297963
  30	1.5000e-002	25.5707	22.754488
  31	1.5500e-002	24.3947	21.850413
  32	1.6000e-002	23.2107	21.090578
  33	1.6500e-002	22.0331	20.234153
  34	1.7000e-002	20.8170	19.389320
  35	1.7500e-002	19.6603	18.567667
  36	1.8000e-002	18.4410	17.636547
  37	1.8500e-002	17.2442	16.732472
  38	1.9000e-002	16.0522	15.810367
  39	1.9500e-002	14.8618	14.845763
  40	2.0000e-002	13.6521	13.819341
  41	2.0500e-002	12.4889	13.038900
  42	2.1000e-002	11.2713	11.955813
  43	2.1500e-002	10.0905	11.006663
  44	2.2000e-002	8.8616	9.860471
  45	2.2500e-002	7.6904	8.975714
  46	2.3000e-002	6.4840	7.933838
  47	2.3500e-002	5.2904	6.853327
  48	2.4000e-002	4.0807	5.817891
  49	2.4500e-002	2.8839	4.863589
  50	2.5000e-002	1.6951	3.884818
  51	2.5500e-002	0.5175	2.912487
  52	2.6000e-002	-0.6889	1.851293
  53	2.6500e-002	-1.8681	0.893128
  54	2.7000e-002	-3.0650	-0.080491
  55	2.7500e-002	-4.2666	-1.060550
  56	2.8000e-002	-5.4730	-2.071517
  57	2.8500e-002	-6.6410	-2.889305
  58	2.9000e-002	-7.8506	-3.995574
  59	2.9500e-002	-9.0507	-5.036162
  60	3.0000e-002	-10.2491	-6.066447
  61	3.0500e-002	-11.4315	-7.023324
  62	3.1000e-002	-12.5931	-7.929975
  63	3.1500e-002	-13.8171	-9.110939
  64	3.2000e-002	-14.9883	-10.114179
  65	3.2500e-002	-16.1964	-11.125146
  66	3.3000e-002	-17.3788	-12.181188
  67	3.3500e-002	-18.5804	-13.293896
  68	3.4000e-002	-19.7548	-14.302287
  69	3.4500e-002	-20.9580	-15.439465
  70	3.5000e-002	-22.1420	-16.504522
  71	3.5500e-002	-23.3517	-17.685486
  72	3.6000e-002	-24.5453	-18.758270
  73	3.6500e-002	-25.6860	-19.765374
  74	3.7000e-002	-26.8893	-20.957928
  75	3.7500e-002	-28.1133	-22.110560
  76	3.8000e-002	-29.3021	-23.236146
  77	3.8500e-002	-29.2204	-23.665002
  78	3.9000e-002	-28.3809	-23.465385
  79	3.9500e-002	-27.2994	-22.942515
  80	4.0000e-002	-26.1635	-22.276693
  81	4.0500e-002	-24.9586	-21.466632
  82	4.1000e-002	-23.8163	-20.708084
  83	4.1500e-002	-22.6115	-19.860675
  84	4.2000e-002	-21.3938	-19.018417
  85	4.2500e-002	-20.2066	-18.232825
  86	4.3000e-002	-19.0082	-17.282387
  87	4.3500e-002	-17.8049	-16.342252
  88	4.4000e-002	-16.6081	-15.421435
  89	4.4500e-002	-15.4145	-14.452967
  90	4.5000e-002	-14.1872	-13.515407
  91	4.5500e-002	-13.0401	-12.620347
  92	4.6000e-002	-11.8144	-11.693091
  93	4.6500e-002	-10.6288	-10.848257
  94	4.7000e-002	-9.3935	-9.546234
  95	4.7500e-002	-8.2207	-8.590645
  96	4.8000e-002	-7.0207	-7.589981
  97	4.8500e-002	-5.8063	-6.576438
  98	4.9000e-002	-4.5838	-5.516532
  99	4.9500e-002	-3.4303	-4.585412
 100	5.0000e-002	-2.2254	-3.570581
 101	5.0500e-002	-1.0126	-2.581508
 102	5.1000e-002	0.1618	-1.670993
 103	5.1500e-002	1.3634	-0.692223
 104	5.2000e-002	2.5507	0.254352
 105	5.2500e-002	3.7939	1.284637
 106	5.3000e-002	4.9860	2.245377
 107	5.3500e-002	6.1491	3.186800
 108	5.4000e-002	7.3540	4.208070
 109	5.4500e-002	8.5909	5.269264
 110	5.5000e-002	9.7813	6.228717
 111	5.5500e-002	10.9765	7.288622
 112	5.6000e-002	12.1301	8.246787
 113	5.6500e-002	13.3717	9.367222
 114	5.7000e-002	14.5525	10.371750
 115	5.7500e-002	15.7622	11.483170
 116	5.8000e-002	16.9366	12.526334
 117	5.8500e-002	18.1382	13.609421
 118	5.9000e-002	19.3222	14.666751
 119	5.9500e-002	20.5399	15.855442
 120	6.0000e-002	21.7207	16.885727
 121	6.0500e-002	22.9031	17.957223
 122	6.1000e-002	24.1159	19.117582
 123	6.1500e-002	25.2999	20.221275
 124	6.2000e-002	26.5096	21.364891
 125	6.2500e-002	27.7641	22.527825
 126	6.3000e-002	28.9577	23.649548
 127	6.3500e-002	28.7814	23.746137
 128	6.4000e-002	27.8650	23.652124
 129	6.4500e-002	26.7451	23.097058
 130	6.5000e-002	25.5947	22.507220
 131	6.5500e-002	24.4123	21.673977
 132	6.6000e-002	23.2267	20.802098
 133	6.6500e-002	22.0411	20.028096
 134	6.7000e-002	20.8411	19.207732
 135	6.7500e-002	19.6715	18.405397
 136	6.8000e-002	18.4586	17.447232
 137	6.8500e-002	17.2570	16.545733
 138	6.9000e-002	16.0602	15.644234
 139	6.9500e-002	14.8730	14.657736
 140	7.0000e-002	13.6649	13.703434
 141	7.0500e-002	12.4745	12.805799
 142	7.1000e-002	11.2745	11.739454
 143	7.1500e-002	10.0745	10.783864
 144	7.2000e-002	8.8873	9.741989
 145	7.2500e-002	7.6840	8.752915
 146	7.3000e-002	6.5016	7.823083
 147	7.3500e-002	5.2888	6.734844
 148	7.4000e-002	4.0952	5.633727
 149	7.4500e-002	2.9111	4.741243
 150	7.5000e-002	1.7047	3.770199
 151	7.5500e-002	0.5415	2.853245
 152	7.6000e-002	-0.6665	1.695463
 153	7.6500e-002	-1.8585	1.065701
 154	7.7000e-002	-3.0634	-0.277533
 155	7.7500e-002	-4.2634	-1.302667
 156	7.8000e-002	-5.4634	-2.255680
 157	7.8500e-002	-6.6330	-3.115968
 158	7.9000e-002	-7.8378	-4.195192
 159	7.9500e-002	-9.0250	-5.191992
 160	8.0000e-002	-10.2315	-6.196520
 161	8.0500e-002	-11.3947	-7.109610
 162	8.1000e-002	-12.5739	-8.112850
 163	8.1500e-002	-13.7787	-9.194650
 164	8.2000e-002	-14.9915	-10.289327
 165	8.2500e-002	-16.1835	-11.255220
 166	8.3000e-002	-17.3627	-12.326716
 167	8.3500e-002	-18.5387	-13.400788
 168	8.4000e-002	-19.7211	-14.424634
 169	8.4500e-002	-20.9292	-15.590144
 170	8.5000e-002	-22.1084	-16.633307
 171	8.5500e-002	-23.2924	-17.716394
 172	8.6000e-002	-24.4956	-18.839405
 173	8.6500e-002	-25.6684	-19.874841
 174	8.7000e-002	-26.8700	-21.058381
 175	8.7500e-002	-28.0653	-22.183968
 176	8.8000e-002	-29.2300	-23.268343
 177	8.8500e-002	-29.1804	-23.746137
 178	8.9000e-002	-28.4161	-23.743562
 179	8.9500e-002	-27.3459	-23.187208
 180	9.0000e-002	-26.1875	-22.514947
 181	9.0500e-002	-24.9955	-21.707461
 182	9.1000e-002	-23.7939	-20.821416
 183	9.1500e-002	-22.6323	-20.131125
 184	9.2000e-002	-21.4371	-19.322351
 185	9.2500e-002	-20.2402	-18.473654
 186	9.3000e-002	-19.0370	-17.505186
 187	9.3500e-002	-17.8466	-16.595959
 188	9.4000e-002	-16.6209	-15.636507
 189	9.4500e-002	-15.4482	-14.744022
 190	9.5000e-002	-14.2353	-13.796160
 191	9.5500e-002	-13.0593	-12.874055
 192	9.6000e-002	-11.8513	-11.832179
 193	9.6500e-002	-10.6368	-10.812197
 194	9.7000e-002	-9.4432	-9.836002
 195	9.7500e-002	-8.2240	-8.761930
 196	9.8000e-002	-7.0672	-7.932550
 197	9.8500e-002	-5.8255	-6.808252
 198	9.9000e-002	-4.6351	-5.799861
 199	9.9500e-002	-3.4351	-4.783742
 200	1.0000e-001	-2.2543	-3.766336
 201	1.0050e-001	-1.0430	-2.795292

Center data before PMax,±Pr and ±Vc Calc.

PMax (µC/cm2):	2.36e+001
Pr (µC/cm2):	2.33e+000
-Pr (µC/cm2):	-2.80e+000
-Vc:	-2.81e+000
C (Max-Eff) (nF):	2.21e-001
Vert. (±Pr) Shift (µC/cm2):	-2.31e-001
Offset (µC/cm2):	5.45e-001

A (Loop Area - µC/cm2·Volts):	2.15e+002



Hysteresis Version: 5.15.2 - Radiant Technologies, Inc., 1999 - 11/06/17

