»»»»»»»»»»»»»»»»»»»»»»»»»»»»»»»»»»»» Hysteresis ««««««««««««««««««««««««««««««««««««
»»»  Executed Version:	5.15.2
»»»  Vision Version:	5.15.9 (R)
»»»  Vision Compiled:	11/30/17
»»»  Driver Version:	5.15.8
»»»  Windows Version:	Windows 7
»»»  Processor Information:	x86 (AMD or Intel) - 4 Processors
»»»  Tester Name:	
»»»  Tester S/N:	PMF21217-360
»»»  Internal Amp Type:	200V RevH 100K 
»»»  Internal Amp S/N:	iAB2-391/H     
»»»  Execution Count:	1
»»»»»»»»»»»»»»»»»»»»»»»»»»»»»»»»»»»»»»»»»»««««««««««««««««««««««««««««««««««««««««««

Stored:	1/17/2022 - 20:45:55
Configured:	01/17/22 08:06:29 PM
Executed:	01/17/22 08:45:39 PM

»»»»»»»»»»»»»»»»»»»»»»»»»»»»»»»»»»» Sample Info ««««««««««««««««««««««««««««««««««««
Sample Name:	
Lot Name:	
Wafer Name:	
Die Row/Column:	0/0
Capacitor Number:	0
Sample Area (cm2):	3.00e-004
Sample Thickness (µm):	5.40e-001

Mux Loop Adjustment:	Disabled

Amplifier:	Internal

»»»»»»»»»»»»»»»»»»»»»»»»»»»»»»»»»»» Tester Info «««««««««««««««««««««««««««««««««««
Tester Name:	
Tester Serial Number:	PMF21217-360
Return Signal Amp. Level:	0.2 [Index: 1]

»»»»»»»»»»»»»»»»»»»»»»»»»»»»»»»» Hysteresis Info ««««««««««««««««««««««««««««««««««
Task Name:	Hyst-1
Volts:	52.00
Field:	962.96 (kV/cm)
Hysteresis Period (ms):	1.00e-001
Preset:	Enabled
Preset Delay (ms):	1.00e+003
Profile:	Double Bipolar

»»»»»»»»»»»»»»»»»»»»»»»»»»»»»»»»»»»»»» Data «««««««««««««««««««««««««««««««««««««««
Points:	201

Valid Data

Point	Time (ms)	Drive Voltage	Measured Polarization
   1	5.0000e-004	-0.1554	-19.862435
   2	1.0000e-003	2.2254	-19.100368
   3	1.5000e-003	4.3643	-18.559468
   4	2.0000e-003	6.4536	-17.874328
   5	2.5000e-003	8.4547	-17.123079
   6	3.0000e-003	10.5135	-16.260044
   7	3.5000e-003	12.6139	-15.177042
   8	4.0000e-003	14.5461	-13.963023
   9	4.5000e-003	16.6786	-12.242962
  10	5.0000e-003	18.6861	-10.050516
  11	5.5000e-003	20.6232	-7.073164
  12	6.0000e-003	22.6019	-3.187101
  13	6.5000e-003	24.6046	1.624502
  14	7.0000e-003	26.5079	7.240242
  15	7.5000e-003	28.6100	13.459386
  16	8.0000e-003	30.6640	19.900899
  17	8.5000e-003	32.7740	26.148891
  18	9.0000e-003	34.8905	31.880023
  19	9.5000e-003	37.0631	36.968085
  20	1.0000e-002	39.0385	41.355382
  21	1.0500e-002	41.2784	45.323181
  22	1.1000e-002	43.3420	48.855857
  23	1.1500e-002	45.3511	52.043558
  24	1.2000e-002	47.4820	55.089424
  25	1.2500e-002	49.4559	57.888880
  26	1.3000e-002	51.5259	60.825364
  27	1.3500e-002	49.4511	61.936011
  28	1.4000e-002	47.1103	62.539415
  29	1.4500e-002	45.1044	62.950499
  30	1.5000e-002	43.1545	63.244989
  31	1.5500e-002	41.0749	63.277443
  32	1.6000e-002	39.1106	63.240181
  33	1.6500e-002	37.1239	63.053871
  34	1.7000e-002	34.9979	62.705291
  35	1.7500e-002	32.9263	62.335075
  36	1.8000e-002	30.9412	61.862690
  37	1.8500e-002	28.8183	61.276114
  38	1.9000e-002	26.7931	60.624630
  39	1.9500e-002	24.8145	59.919057
  40	2.0000e-002	22.6563	59.052416
  41	2.0500e-002	20.6039	58.171350
  42	2.1000e-002	18.5724	57.174893
  43	2.1500e-002	16.4944	56.051024
  44	2.2000e-002	14.3907	54.808157
  45	2.2500e-002	12.4329	53.496775
  46	2.3000e-002	10.2411	51.829603
  47	2.3500e-002	8.2480	50.105936
  48	2.4000e-002	6.1555	48.044507
  49	2.4500e-002	4.1576	45.771527
  50	2.5000e-002	2.0652	42.717247
  51	2.5500e-002	0.0849	39.536757
  52	2.6000e-002	-1.8954	35.567756
  53	2.6500e-002	-3.9622	31.173247
  54	2.7000e-002	-6.0450	26.413330
  55	2.7500e-002	-8.0701	21.506770
  56	2.8000e-002	-10.2155	16.648289
  57	2.8500e-002	-12.3175	12.148004
  58	2.9000e-002	-14.3074	7.927785
  59	2.9500e-002	-16.4864	3.854210
  60	3.0000e-002	-18.6060	-0.039065
  61	3.0500e-002	-20.6408	-3.740020
  62	3.1000e-002	-22.7669	-7.421744
  63	3.1500e-002	-24.8177	-10.974853
  64	3.2000e-002	-26.8572	-14.529165
  65	3.2500e-002	-28.9577	-18.234928
  66	3.3000e-002	-31.0421	-22.018822
  67	3.3500e-002	-33.0897	-25.960177
  68	3.4000e-002	-35.1757	-29.959228
  69	3.4500e-002	-37.3130	-33.936643
  70	3.5000e-002	-39.2773	-37.722941
  71	3.5500e-002	-41.4899	-41.444330
  72	3.6000e-002	-43.5326	-44.873633
  73	3.6500e-002	-45.7196	-48.258463
  74	3.7000e-002	-47.7448	-51.411307
  75	3.7500e-002	-49.9029	-54.528091
  76	3.8000e-002	-51.8752	-57.558331
  77	3.8500e-002	-49.8628	-58.767542
  78	3.9000e-002	-47.3250	-59.391379
  79	3.9500e-002	-45.3976	-59.975551
  80	4.0000e-002	-43.4445	-60.278455
  81	4.0500e-002	-41.4434	-60.384231
  82	4.1000e-002	-39.3766	-60.343363
  83	4.1500e-002	-37.3979	-60.164265
  84	4.2000e-002	-35.2991	-59.901027
  85	4.2500e-002	-33.2227	-59.489943
  86	4.3000e-002	-31.2231	-59.054820
  87	4.3500e-002	-29.1419	-58.468244
  88	4.4000e-002	-27.0543	-57.804740
  89	4.4500e-002	-25.1221	-57.091955
  90	4.5000e-002	-22.8742	-56.249353
  91	4.5500e-002	-20.9068	-55.362278
  92	4.6000e-002	-18.8367	-54.352599
  93	4.6500e-002	-16.6770	-53.202286
  94	4.7000e-002	-14.6342	-51.965428
  95	4.7500e-002	-12.6860	-50.583129
  96	4.8000e-002	-10.4510	-48.955623
  97	4.8500e-002	-8.5059	-47.191088
  98	4.9000e-002	-6.5112	-45.139275
  99	4.9500e-002	-4.3371	-42.631905
 100	5.0000e-002	-2.3616	-39.863701
 101	5.0500e-002	-0.3733	-36.682009
 102	5.1000e-002	1.7784	-33.314008
 103	5.1500e-002	3.8949	-30.138326
 104	5.2000e-002	5.9473	-27.257134
 105	5.2500e-002	8.0317	-24.612736
 106	5.3000e-002	10.1257	-22.101759
 107	5.3500e-002	12.2198	-19.531885
 108	5.4000e-002	14.1712	-16.778105
 109	5.4500e-002	16.2476	-13.508668
 110	5.5000e-002	18.2680	-9.748814
 111	5.5500e-002	20.2787	-5.289397
 112	5.6000e-002	22.3151	-0.209749
 113	5.6500e-002	24.3642	5.456475
 114	5.7000e-002	26.3798	11.217657
 115	5.7500e-002	28.5395	17.232461
 116	5.8000e-002	30.6640	22.978017
 117	5.8500e-002	32.7404	28.207915
 118	5.9000e-002	34.8985	33.089234
 119	5.9500e-002	37.0118	37.442875
 120	6.0000e-002	39.0385	41.333746
 121	6.0500e-002	41.2463	44.936137
 122	6.1000e-002	43.3163	48.179131
 123	6.1500e-002	45.4152	51.241825
 124	6.2000e-002	47.5621	54.147057
 125	6.2500e-002	49.5664	56.912857
 126	6.3000e-002	51.6541	59.671445
 127	6.3500e-002	49.4431	60.687134
 128	6.4000e-002	46.9997	61.271306
 129	6.4500e-002	45.0211	61.718450
 130	6.5000e-002	43.0264	61.922790
 131	6.5500e-002	41.0445	61.972071
 132	6.6000e-002	38.9344	61.868700
 133	6.6500e-002	37.0679	61.747298
 134	6.7000e-002	34.8585	61.397516
 135	6.7500e-002	32.8333	60.994846
 136	6.8000e-002	30.8114	60.548904
 137	6.8500e-002	28.7302	59.999591
 138	6.9000e-002	26.7018	59.354117
 139	6.9500e-002	24.6863	58.690614
 140	7.0000e-002	22.5666	57.873254
 141	7.0500e-002	20.4694	56.999401
 142	7.1000e-002	18.4490	56.072660
 143	7.1500e-002	16.3918	55.023314
 144	7.2000e-002	14.2962	53.810497
 145	7.2500e-002	12.3656	52.583256
 146	7.3000e-002	10.1818	51.079555
 147	7.3500e-002	8.1022	49.429210
 148	7.4000e-002	6.1267	47.506012
 149	7.4500e-002	4.0551	45.260677
 150	7.5000e-002	2.0043	42.619885
 151	7.5500e-002	-0.0240	39.482667
 152	7.6000e-002	-1.9162	35.832196
 153	7.6500e-002	-4.0295	31.394415
 154	7.7000e-002	-6.1059	26.557570
 155	7.7500e-002	-8.1134	21.434650
 156	7.8000e-002	-10.2106	16.174702
 157	7.8500e-002	-12.3255	11.129911
 158	7.9000e-002	-14.3443	6.279845
 159	7.9500e-002	-16.5072	1.604068
 160	8.0000e-002	-18.5612	-2.730341
 161	8.0500e-002	-20.6985	-7.056336
 162	8.1000e-002	-22.7380	-11.127507
 163	8.1500e-002	-24.8833	-15.238344
 164	8.2000e-002	-26.8524	-19.109984
 165	8.2500e-002	-28.9753	-23.184761
 166	8.3000e-002	-31.1318	-27.205448
 167	8.3500e-002	-33.1329	-31.062663
 168	8.4000e-002	-35.2847	-34.947524
 169	8.4500e-002	-37.3386	-38.560734
 170	8.5000e-002	-39.4215	-42.030905
 171	8.5500e-002	-41.5459	-45.282313
 172	8.6000e-002	-43.6592	-48.372653
 173	8.6500e-002	-45.6619	-51.291107
 174	8.7000e-002	-47.8922	-54.179511
 175	8.7500e-002	-49.8660	-56.910453
 176	8.8000e-002	-51.9264	-59.681061
 177	8.8500e-002	-49.8067	-60.780890
 178	8.9000e-002	-47.3218	-61.243660
 179	8.9500e-002	-45.2918	-61.685996
 180	9.0000e-002	-43.3692	-61.920386
 181	9.0500e-002	-41.3152	-61.972071
 182	9.1000e-002	-39.2933	-61.944425
 183	9.1500e-002	-37.3226	-61.750904
 184	9.2000e-002	-35.2286	-61.425162
 185	9.2500e-002	-33.1474	-61.058552
 186	9.3000e-002	-31.0886	-60.562126
 187	9.3500e-002	-29.0602	-60.016419
 188	9.4000e-002	-26.9822	-59.386571
 189	9.4500e-002	-25.0131	-58.707442
 190	9.5000e-002	-22.8983	-57.900900
 191	9.5500e-002	-20.7658	-57.009017
 192	9.6000e-002	-18.7711	-56.041408
 193	9.6500e-002	-16.6386	-54.983648
 194	9.7000e-002	-14.5926	-53.790063
 195	9.7500e-002	-12.6059	-52.496712
 196	9.8000e-002	-10.4910	-50.989405
 197	9.8500e-002	-8.4402	-49.295788
 198	9.9000e-002	-6.4343	-47.362974
 199	9.9500e-002	-4.3435	-45.087589
 200	1.0000e-001	-2.2815	-42.417949
 201	1.0050e-001	-0.3284	-39.417759

Center data before PMax,±Pr and ±Vc Calc.

PMax (µC/cm2):	5.97e+001
Pr (µC/cm2):	3.95e+001
-Pr (µC/cm2):	-3.94e+001
Vc:	2.24e+001
-Vc:	-1.73e+001
C (Max-Eff) (nF):	3.44e-001
Vert. (±Pr) Shift (µC/cm2):	5.10e-002
Horiz. Shift (±Vc):	2.56e+000
Offset (µC/cm2):	1.99e+001

A (Loop Area - µC/cm2·Volts):	4.58e+003



Hysteresis Version: 5.15.2 - Radiant Technologies, Inc., 1999 - 11/06/17

