»»»»»»»»»»»»»»»»»»»»»»»»»»»»»»»»»»»» Hysteresis ««««««««««««««««««««««««««««««««««««
»»»  Executed Version:	5.15.2
»»»  Vision Version:	5.15.9 (R)
»»»  Vision Compiled:	11/30/17
»»»  Driver Version:	5.15.8
»»»  Windows Version:	Windows 7
»»»  Processor Information:	x86 (AMD or Intel) - 4 Processors
»»»  Tester Name:	
»»»  Tester S/N:	PMF21217-360
»»»  Internal Amp Type:	200V RevH 100K 
»»»  Internal Amp S/N:	iAB2-391/H     
»»»  Execution Count:	1
»»»»»»»»»»»»»»»»»»»»»»»»»»»»»»»»»»»»»»»»»»««««««««««««««««««««««««««««««««««««««««««

Stored:	4/22/2022 - 17:6:15
Configured:	04/22/22 02:27:44 PM
Executed:	04/22/22 05:04:19 PM

»»»»»»»»»»»»»»»»»»»»»»»»»»»»»»»»»»» Sample Info ««««««««««««««««««««««««««««««««««««
Sample Name:	
Lot Name:	
Wafer Name:	
Die Row/Column:	0/0
Capacitor Number:	0
Sample Area (cm2):	2.80e-004
Sample Thickness (µm):	2.60e-001

Mux Loop Adjustment:	Disabled

Amplifier:	Internal

»»»»»»»»»»»»»»»»»»»»»»»»»»»»»»»»»»» Tester Info «««««««««««««««««««««««««««««««««««
Tester Name:	
Tester Serial Number:	PMF21217-360
Return Signal Amp. Level:	0.2 [Index: 1]

»»»»»»»»»»»»»»»»»»»»»»»»»»»»»»»» Hysteresis Info ««««««««««««««««««««««««««««««««««
Task Name:	Hyst-1
Volts:	110.00
Field:	4230.77 (kV/cm)
Hysteresis Period (ms):	1.00e-001
Preset:	Enabled
Preset Delay (ms):	1.00e+003
Profile:	Double Bipolar

»»»»»»»»»»»»»»»»»»»»»»»»»»»»»»»»»»»»»» Data «««««««««««««««««««««««««««««««««««««««
Points:	201

Valid Data

Point	Time (ms)	Drive Voltage	Measured Polarization
   1	5.0000e-004	-0.1506	-1.798491
   2	1.0000e-003	5.1830	2.405072
   3	1.5000e-003	9.3951	5.768952
   4	2.0000e-003	13.6794	9.304117
   5	2.5000e-003	17.9604	12.980947
   6	3.0000e-003	22.3615	16.890878
   7	3.5000e-003	26.6361	20.697782
   8	4.0000e-003	31.0725	24.683697
   9	4.5000e-003	35.3904	28.556280
  10	5.0000e-003	39.7579	32.401819
  11	5.5000e-003	44.1270	36.157208
  12	6.0000e-003	48.5314	39.809568
  13	6.5000e-003	52.8605	43.370491
  14	7.0000e-003	57.2569	46.763992
  15	7.5000e-003	61.5603	50.008102
  16	8.0000e-003	65.9647	53.213576
  17	8.5000e-003	70.3033	56.317309
  18	9.0000e-003	74.7077	59.393998
  19	9.5000e-003	79.0192	62.407582
  20	1.0000e-002	83.3867	65.409574
  21	1.0500e-002	87.7847	68.484975
  22	1.1000e-002	92.1057	71.521740
  23	1.1500e-002	96.5149	74.731078
  24	1.2000e-002	100.8440	77.950718
  25	1.2500e-002	105.1586	81.431794
  26	1.3000e-002	109.5742	85.085442
  27	1.3500e-002	103.6462	85.122790
  28	1.4000e-002	99.5334	84.912869
  29	1.4500e-002	95.4222	84.125989
  30	1.5000e-002	91.1620	83.354563
  31	1.5500e-002	86.9019	82.208371
  32	1.6000e-002	82.6096	80.853546
  33	1.6500e-002	78.3126	79.417587
  34	1.7000e-002	73.9996	77.882462
  35	1.7500e-002	69.6288	76.155447
  36	1.8000e-002	65.2341	74.405250
  37	1.8500e-002	60.9178	72.495359
  38	1.9000e-002	56.5311	70.519788
  39	1.9500e-002	52.1876	68.441188
  40	2.0000e-002	47.8297	66.199030
  41	2.0500e-002	43.3820	63.776573
  42	2.1000e-002	39.0369	61.256238
  43	2.1500e-002	34.6854	58.609693
  44	2.2000e-002	30.2891	55.683684
  45	2.2500e-002	25.9808	52.603132
  46	2.3000e-002	21.6422	49.288190
  47	2.3500e-002	17.2346	45.597194
  48	2.4000e-002	12.9055	41.653778
  49	2.4500e-002	8.5604	37.264764
  50	2.5000e-002	4.1977	32.480378
  51	2.5500e-002	-0.0945	27.446148
  52	2.6000e-002	-4.5181	22.086091
  53	2.6500e-002	-8.9097	16.621717
  54	2.7000e-002	-13.2772	11.506352
  55	2.7500e-002	-17.6704	6.454092
  56	2.8000e-002	-22.1677	1.564101
  57	2.8500e-002	-26.5496	-3.209982
  58	2.9000e-002	-30.9059	-7.651798
  59	2.9500e-002	-35.3551	-12.109068
  60	3.0000e-002	-39.6922	-16.379600
  61	3.0500e-002	-44.1254	-20.547102
  62	3.1000e-002	-48.4673	-24.543320
  63	3.1500e-002	-52.8653	-28.439085
  64	3.2000e-002	-57.2697	-32.127506
  65	3.2500e-002	-61.6628	-35.732215
  66	3.3000e-002	-66.0303	-39.173367
  67	3.3500e-002	-70.4652	-42.595201
  68	3.4000e-002	-74.8215	-45.903704
  69	3.4500e-002	-79.2050	-49.194177
  70	3.5000e-002	-83.5918	-52.447301
  71	3.5500e-002	-88.0170	-55.790576
  72	3.6000e-002	-92.3989	-59.155745
  73	3.6500e-002	-96.7776	-62.629093
  74	3.7000e-002	-101.1340	-66.241530
  75	3.7500e-002	-105.4983	-70.121840
  76	3.8000e-002	-109.8642	-74.261010
  77	3.8500e-002	-103.8336	-74.791607
  78	3.9000e-002	-99.8474	-75.118723
  79	3.9500e-002	-95.5568	-74.921681
  80	4.0000e-002	-91.3303	-74.257147
  81	4.0500e-002	-87.1085	-73.355647
  82	4.1000e-002	-82.7666	-72.172108
  83	4.1500e-002	-78.4792	-70.917736
  84	4.2000e-002	-74.1389	-69.435413
  85	4.2500e-002	-69.7971	-67.837183
  86	4.3000e-002	-65.4536	-66.119183
  87	4.3500e-002	-61.1005	-64.276261
  88	4.4000e-002	-56.7474	-62.383112
  89	4.4500e-002	-52.3158	-60.143530
  90	4.5000e-002	-48.0588	-58.070082
  91	4.5500e-002	-43.6063	-55.620579
  92	4.6000e-002	-39.3205	-53.019110
  93	4.6500e-002	-34.8889	-50.530971
  94	4.7000e-002	-30.5438	-47.465873
  95	4.7500e-002	-26.2003	-44.376306
  96	4.8000e-002	-21.8344	-41.063940
  97	4.8500e-002	-17.4925	-37.410292
  98	4.9000e-002	-13.1298	-33.433392
  99	4.9500e-002	-8.8007	-29.215663
 100	5.0000e-002	-4.4685	-24.605137
 101	5.0500e-002	-0.1218	-19.725450
 102	5.1000e-002	4.2810	-14.648721
 103	5.1500e-002	8.6581	-9.590021
 104	5.2000e-002	13.0625	-4.595715
 105	5.2500e-002	17.4461	0.376698
 106	5.3000e-002	21.8713	5.199720
 107	5.3500e-002	26.1923	9.875926
 108	5.4000e-002	30.6367	14.557283
 109	5.4500e-002	35.0219	19.024856
 110	5.5000e-002	39.4455	23.532353
 111	5.5500e-002	43.8499	27.569782
 112	5.6000e-002	48.1741	31.518350
 113	5.6500e-002	52.5865	35.332980
 114	5.7000e-002	56.9348	39.012385
 115	5.7500e-002	61.3824	42.501188
 116	5.8000e-002	65.7420	45.966809
 117	5.8500e-002	70.1640	49.366749
 118	5.9000e-002	74.5379	52.698433
 119	5.9500e-002	78.9054	55.869135
 120	6.0000e-002	83.3242	59.109382
 121	6.0500e-002	87.7061	62.289099
 122	6.1000e-002	92.1586	65.565405
 123	6.1500e-002	96.4764	68.861029
 124	6.2000e-002	100.8808	72.272560
 125	6.2500e-002	105.2467	75.841210
 126	6.3000e-002	109.6303	79.651977
 127	6.3500e-002	103.5821	79.753717
 128	6.4000e-002	99.4549	79.672582
 129	6.4500e-002	95.3036	79.113653
 130	6.5000e-002	91.0579	78.248213
 131	6.5500e-002	86.8169	77.192171
 132	6.6000e-002	82.4959	75.879846
 133	6.6500e-002	78.1716	74.476082
 134	6.7000e-002	73.8425	72.948685
 135	6.7500e-002	69.5199	71.287350
 136	6.8000e-002	65.1059	69.541017
 137	6.8500e-002	60.7928	67.674914
 138	6.9000e-002	56.4526	65.692903
 139	6.9500e-002	51.9873	63.610439
 140	7.0000e-002	47.7560	61.435250
 141	7.0500e-002	43.3115	59.072034
 142	7.1000e-002	38.9664	56.576168
 143	7.1500e-002	34.5621	53.865231
 144	7.2000e-002	30.2378	51.015205
 145	7.2500e-002	25.8511	47.964274
 146	7.3000e-002	21.5685	44.659635
 147	7.3500e-002	17.1112	40.999547
 148	7.4000e-002	12.8687	37.159160
 149	7.4500e-002	8.4835	32.860296
 150	7.5000e-002	4.1496	28.185378
 151	7.5500e-002	-0.2067	23.089331
 152	7.6000e-002	-4.5358	17.698364
 153	7.6500e-002	-8.9722	12.254596
 154	7.7000e-002	-13.3189	6.832721
 155	7.7500e-002	-17.7521	1.591146
 156	7.8000e-002	-22.1821	-3.350358
 157	7.8500e-002	-26.5720	-8.441254
 158	7.9000e-002	-30.9924	-13.076248
 159	7.9500e-002	-35.3311	-17.617229
 160	8.0000e-002	-39.7852	-22.035864
 161	8.0500e-002	-44.1655	-26.204655
 162	8.1000e-002	-48.5538	-30.173828
 163	8.1500e-002	-52.9070	-34.002624
 164	8.2000e-002	-57.2857	-37.702635
 165	8.2500e-002	-61.7237	-41.289315
 166	8.3000e-002	-66.0432	-44.698270
 167	8.3500e-002	-70.5196	-48.031242
 168	8.4000e-002	-74.7958	-51.270201
 169	8.4500e-002	-79.2563	-54.447342
 170	8.5000e-002	-83.6959	-57.685013
 171	8.5500e-002	-88.0698	-60.887911
 172	8.6000e-002	-92.4470	-64.059901
 173	8.6500e-002	-96.8321	-67.534537
 174	8.7000e-002	-101.2269	-71.065839
 175	8.7500e-002	-105.5784	-74.822516
 176	8.8000e-002	-109.9747	-78.934641
 177	8.8500e-002	-103.7920	-79.381527
 178	8.9000e-002	-99.6471	-79.753717
 179	8.9500e-002	-95.4863	-79.556675
 180	9.0000e-002	-91.2293	-78.939792
 181	9.0500e-002	-86.9659	-78.022838
 182	9.1000e-002	-82.6817	-76.957781
 183	9.1500e-002	-78.3607	-75.626138
 184	9.2000e-002	-74.0556	-74.239117
 185	9.2500e-002	-69.6497	-72.604827
 186	9.3000e-002	-65.3078	-70.915160
 187	9.3500e-002	-60.9563	-69.112161
 188	9.4000e-002	-56.5567	-67.134014
 189	9.4500e-002	-52.2052	-65.079883
 190	9.5000e-002	-47.9002	-62.947193
 191	9.5500e-002	-43.4766	-60.505418
 192	9.6000e-002	-39.1379	-58.028870
 193	9.6500e-002	-34.7800	-55.338539
 194	9.7000e-002	-30.3948	-52.427984
 195	9.7500e-002	-26.1058	-49.414400
 196	9.8000e-002	-21.7255	-46.060822
 197	9.8500e-002	-17.3868	-42.476718
 198	9.9000e-002	-13.0529	-38.600271
 199	9.9500e-002	-8.6629	-34.276938
 200	1.0000e-001	-4.3948	-29.752699
 201	1.0050e-001	-0.0112	-24.818921

Center data before PMax,±Pr and ±Vc Calc.

PMax (µC/cm2):	7.97e+001
Pr (µC/cm2):	2.33e+001
-Pr (µC/cm2):	-2.48e+001
-Vc:	-1.92e+001
C (Max-Eff) (nF):	2.03e-001
Vert. (±Pr) Shift (µC/cm2):	-7.44e-001
Offset (µC/cm2):	1.80e+000

A (Loop Area - µC/cm2·Volts):	6.71e+003



Hysteresis Version: 5.15.2 - Radiant Technologies, Inc., 1999 - 11/06/17

